SpectraSuite Data File
++++++++++++++++++++++++++++++++++++
Date: Mon Apr 07 14:44:45 EDT 2025
User: Claudine
Dark Spectrum Present: No
Reference Spectrum Present: No
Number of Sampled Component Spectra: 1
Spectrometers: USB2E3842
Integration Time (usec): 100000 (USB2E3842)
Spectra Averaged: 1 (USB2E3842)
Boxcar Smoothing: 0 (USB2E3842)
Correct for Electrical Dark: No (USB2E3842)
Strobe/Lamp Enabled: No (USB2E3842)
Correct for Detector Non-linearity: No (USB2E3842)
Correct for Stray Light: No (USB2E3842)
Number of Pixels in Processed Spectrum: 2048
>>>>>Begin Processed Spectral Data<<<<<
340.23	0.00
340.61	170.00
340.98	173.00
341.36	177.00
341.73	175.00
342.10	173.00
342.48	174.00
342.85	185.00
343.23	178.00
343.60	178.00
343.97	183.00
344.35	180.00
344.72	186.00
345.10	183.00
345.47	180.00
345.84	181.00
346.22	179.00
346.59	181.00
346.97	182.00
347.34	180.00
347.71	180.00
348.09	177.00
348.46	184.00
348.83	175.00
349.21	181.00
349.58	179.00
349.95	185.00
350.33	177.00
350.70	182.00
351.07	185.00
351.45	187.00
351.82	179.00
352.19	189.00
352.57	185.00
352.94	179.00
353.31	184.00
353.68	177.00
354.06	181.00
354.43	183.00
354.80	191.00
355.18	186.00
355.55	186.00
355.92	186.00
356.29	185.00
356.67	185.00
357.04	183.00
357.41	182.00
357.78	180.00
358.16	187.00
358.53	183.00
358.90	181.00
359.27	187.00
359.64	189.00
360.02	182.00
360.39	179.00
360.76	181.00
361.13	182.00
361.51	183.00
361.88	184.00
362.25	183.00
362.62	183.00
362.99	182.00
363.36	182.00
363.74	183.00
364.11	186.00
364.48	187.00
364.85	186.00
365.22	178.00
365.59	176.00
365.97	187.00
366.34	189.00
366.71	182.00
367.08	180.00
367.45	180.00
367.82	185.00
368.19	185.00
368.56	184.00
368.94	185.00
369.31	182.00
369.68	185.00
370.05	182.00
370.42	185.00
370.79	185.00
371.16	186.00
371.53	179.00
371.90	185.00
372.27	186.00
372.64	181.00
373.01	187.00
373.39	187.00
373.76	187.00
374.13	181.00
374.50	185.00
374.87	189.00
375.24	185.00
375.61	190.00
375.98	186.00
376.35	182.00
376.72	179.00
377.09	187.00
377.46	190.00
377.83	183.00
378.20	180.00
378.57	184.00
378.94	185.00
379.31	191.00
379.68	188.00
380.05	191.00
380.42	182.00
380.79	183.00
381.16	190.00
381.53	183.00
381.90	186.00
382.27	190.00
382.64	186.00
383.01	181.00
383.38	184.00
383.74	184.00
384.11	181.00
384.48	179.00
384.85	184.00
385.22	189.00
385.59	184.00
385.96	182.00
386.33	185.00
386.70	186.00
387.07	186.00
387.44	185.00
387.81	186.00
388.17	185.00
388.54	183.00
388.91	184.00
389.28	182.00
389.65	189.00
390.02	186.00
390.39	186.00
390.76	186.00
391.12	183.00
391.49	182.00
391.86	192.00
392.23	185.00
392.60	188.00
392.97	187.00
393.33	188.00
393.70	183.00
394.07	187.00
394.44	188.00
394.81	188.00
395.18	186.00
395.54	185.00
395.91	189.00
396.28	181.00
396.65	188.00
397.01	189.00
397.38	183.00
397.75	196.00
398.12	185.00
398.49	186.00
398.85	187.00
399.22	191.00
399.59	184.00
399.96	191.00
400.32	189.00
400.69	187.00
401.06	188.00
401.43	189.00
401.79	191.00
402.16	186.00
402.53	192.00
402.90	191.00
403.26	188.00
403.63	192.00
404.00	195.00
404.36	192.00
404.73	194.00
405.10	194.00
405.46	192.00
405.83	196.00
406.20	190.00
406.56	197.00
406.93	197.00
407.30	195.00
407.67	198.00
408.03	193.00
408.40	199.00
408.76	199.00
409.13	198.00
409.50	194.00
409.86	203.00
410.23	201.00
410.60	208.00
410.96	209.00
411.33	200.00
411.70	206.00
412.06	201.00
412.43	210.00
412.79	205.00
413.16	228.00
413.53	213.00
413.89	215.00
414.26	221.00
414.62	224.00
414.99	228.00
415.36	224.00
415.72	222.00
416.09	230.00
416.45	236.00
416.82	240.00
417.18	238.00
417.55	248.00
417.91	251.00
418.28	250.00
418.65	250.00
419.01	251.00
419.38	263.00
419.74	275.00
420.11	269.00
420.47	282.00
420.84	290.00
421.20	290.00
421.57	295.00
421.93	312.00
422.30	308.00
422.66	334.00
423.03	339.00
423.39	342.00
423.76	362.00
424.12	371.00
424.49	379.00
424.85	392.00
425.22	402.00
425.58	412.00
425.95	415.00
426.31	449.00
426.67	458.00
427.04	473.00
427.40	477.00
427.77	511.00
428.13	512.00
428.50	554.00
428.86	569.00
429.22	580.00
429.59	585.00
429.95	619.00
430.32	621.00
430.68	676.00
431.05	676.00
431.41	728.00
431.77	758.00
432.14	790.00
432.50	851.00
432.86	852.00
433.23	875.00
433.59	924.00
433.96	975.00
434.32	1021.00
434.68	1053.00
435.05	1041.00
435.41	1154.00
435.77	1186.00
436.14	1242.00
436.50	1292.00
436.86	1372.00
437.23	1400.00
437.59	1505.00
437.95	1572.00
438.32	1558.00
438.68	1659.00
439.04	1749.00
439.41	1795.00
439.77	1895.00
440.13	1929.00
440.50	2037.00
440.86	2172.00
441.22	2243.00
441.58	2311.00
441.95	2352.00
442.31	2576.00
442.67	2619.00
443.03	2650.00
443.40	2718.00
443.76	2887.00
444.12	2923.00
444.49	3122.00
444.85	3193.00
445.21	3339.00
445.57	3306.00
445.93	3443.00
446.30	3607.00
446.66	3647.00
447.02	3687.00
447.38	3653.00
447.75	3842.00
448.11	3967.00
448.47	3776.00
448.83	3949.00
449.19	3888.00
449.56	4011.00
449.92	3999.00
450.28	3933.00
450.64	4002.00
451.00	3854.00
451.37	3806.00
451.73	3727.00
452.09	3537.00
452.45	3587.00
452.81	3512.00
453.17	3372.00
453.54	3287.00
453.90	3270.00
454.26	2994.00
454.62	3012.00
454.98	2907.00
455.34	2781.00
455.70	2587.00
456.06	2595.00
456.43	2517.00
456.79	2429.00
457.15	2296.00
457.51	2236.00
457.87	2130.00
458.23	2110.00
458.59	2040.00
458.95	1975.00
459.31	1827.00
459.67	1871.00
460.04	1742.00
460.40	1754.00
460.76	1748.00
461.12	1612.00
461.48	1607.00
461.84	1617.00
462.20	1572.00
462.56	1572.00
462.92	1554.00
463.28	1522.00
463.64	1503.00
464.00	1476.00
464.36	1466.00
464.72	1442.00
465.08	1413.00
465.44	1402.00
465.80	1393.00
466.16	1329.00
466.52	1313.00
466.88	1295.00
467.24	1262.00
467.60	1249.00
467.96	1201.00
468.32	1196.00
468.68	1179.00
469.04	1116.00
469.40	1127.00
469.76	1087.00
470.12	1055.00
470.48	1062.00
470.84	1030.00
471.20	999.00
471.56	951.00
471.92	945.00
472.28	929.00
472.64	880.00
473.00	875.00
473.36	874.00
473.72	851.00
474.08	799.00
474.44	795.00
474.79	775.00
475.15	798.00
475.51	764.00
475.87	771.00
476.23	731.00
476.59	738.00
476.95	710.00
477.31	723.00
477.67	726.00
478.03	703.00
478.38	693.00
478.74	681.00
479.10	692.00
479.46	692.00
479.82	666.00
480.18	689.00
480.54	673.00
480.89	663.00
481.25	659.00
481.61	644.00
481.97	646.00
482.33	648.00
482.69	637.00
483.04	642.00
483.40	643.00
483.76	648.00
484.12	643.00
484.48	631.00
484.84	632.00
485.19	623.00
485.55	637.00
485.91	625.00
486.27	630.00
486.63	621.00
486.98	634.00
487.34	614.00
487.70	629.00
488.06	625.00
488.41	624.00
488.77	630.00
489.13	629.00
489.49	641.00
489.84	656.00
490.20	646.00
490.56	655.00
490.92	663.00
491.27	684.00
491.63	693.00
491.99	690.00
492.35	689.00
492.70	699.00
493.06	712.00
493.42	718.00
493.78	733.00
494.13	740.00
494.49	763.00
494.85	775.00
495.20	796.00
495.56	803.00
495.92	818.00
496.27	822.00
496.63	848.00
496.99	871.00
497.34	893.00
497.70	912.00
498.06	920.00
498.41	939.00
498.77	959.00
499.13	976.00
499.48	1009.00
499.84	1017.00
500.20	1027.00
500.55	1049.00
500.91	1092.00
501.27	1108.00
501.62	1116.00
501.98	1149.00
502.34	1166.00
502.69	1210.00
503.05	1208.00
503.40	1232.00
503.76	1267.00
504.12	1281.00
504.47	1314.00
504.83	1338.00
505.18	1368.00
505.54	1393.00
505.90	1404.00
506.25	1428.00
506.61	1438.00
506.96	1465.00
507.32	1489.00
507.67	1526.00
508.03	1529.00
508.38	1567.00
508.74	1623.00
509.10	1643.00
509.45	1628.00
509.81	1682.00
510.16	1672.00
510.52	1696.00
510.87	1745.00
511.23	1755.00
511.58	1797.00
511.94	1808.00
512.29	1810.00
512.65	1841.00
513.00	1856.00
513.36	1859.00
513.71	1898.00
514.07	1896.00
514.42	1928.00
514.78	1934.00
515.13	1973.00
515.49	1984.00
515.84	1986.00
516.20	2033.00
516.55	2040.00
516.91	2015.00
517.26	2048.00
517.62	2053.00
517.97	2069.00
518.33	2083.00
518.68	2082.00
519.03	2078.00
519.39	2132.00
519.74	2127.00
520.10	2133.00
520.45	2114.00
520.81	2131.00
521.16	2147.00
521.51	2160.00
521.87	2163.00
522.22	2168.00
522.58	2177.00
522.93	2169.00
523.28	2176.00
523.64	2177.00
523.99	2192.00
524.35	2201.00
524.70	2173.00
525.05	2195.00
525.41	2201.00
525.76	2222.00
526.11	2197.00
526.47	2184.00
526.82	2207.00
527.18	2207.00
527.53	2221.00
527.88	2232.00
528.24	2233.00
528.59	2228.00
528.94	2259.00
529.30	2257.00
529.65	2260.00
530.00	2236.00
530.36	2253.00
530.71	2255.00
531.06	2240.00
531.42	2232.00
531.77	2244.00
532.12	2256.00
532.48	2266.00
532.83	2264.00
533.18	2258.00
533.53	2279.00
533.89	2256.00
534.24	2288.00
534.59	2282.00
534.95	2287.00
535.30	2284.00
535.65	2311.00
536.00	2300.00
536.36	2306.00
536.71	2294.00
537.06	2310.00
537.41	2285.00
537.77	2292.00
538.12	2318.00
538.47	2360.00
538.82	2320.00
539.18	2296.00
539.53	2304.00
539.88	2322.00
540.23	2311.00
540.58	2325.00
540.94	2328.00
541.29	2326.00
541.64	2352.00
541.99	2340.00
542.34	2344.00
542.70	2353.00
543.05	2337.00
543.40	2342.00
543.75	2352.00
544.10	2321.00
544.46	2331.00
544.81	2324.00
545.16	2379.00
545.51	2314.00
545.86	2351.00
546.21	2379.00
546.57	2370.00
546.92	2352.00
547.27	2352.00
547.62	2341.00
547.97	2352.00
548.32	2354.00
548.67	2366.00
549.03	2358.00
549.38	2361.00
549.73	2357.00
550.08	2387.00
550.43	2371.00
550.78	2381.00
551.13	2374.00
551.48	2349.00
551.83	2353.00
552.19	2376.00
552.54	2348.00
552.89	2349.00
553.24	2357.00
553.59	2336.00
553.94	2334.00
554.29	2338.00
554.64	2340.00
554.99	2338.00
555.34	2336.00
555.69	2304.00
556.04	2332.00
556.39	2316.00
556.75	2305.00
557.10	2324.00
557.45	2339.00
557.80	2310.00
558.15	2305.00
558.50	2301.00
558.85	2296.00
559.20	2298.00
559.55	2286.00
559.90	2289.00
560.25	2287.00
560.60	2276.00
560.95	2247.00
561.30	2266.00
561.65	2236.00
562.00	2256.00
562.35	2247.00
562.70	2231.00
563.05	2244.00
563.40	2223.00
563.75	2197.00
564.10	2168.00
564.45	2199.00
564.80	2149.00
565.15	2176.00
565.50	2165.00
565.85	2183.00
566.20	2158.00
566.54	2138.00
566.89	2161.00
567.24	2107.00
567.59	2132.00
567.94	2103.00
568.29	2109.00
568.64	2107.00
568.99	2093.00
569.34	2087.00
569.69	2066.00
570.04	2073.00
570.39	2072.00
570.74	2075.00
571.09	2062.00
571.43	2065.00
571.78	2027.00
572.13	2007.00
572.48	2023.00
572.83	1999.00
573.18	2022.00
573.53	1991.00
573.88	2000.00
574.23	1981.00
574.57	1976.00
574.92	1975.00
575.27	1957.00
575.62	1951.00
575.97	1936.00
576.32	1935.00
576.67	1947.00
577.01	1924.00
577.36	1931.00
577.71	1894.00
578.06	1915.00
578.41	1913.00
578.76	1892.00
579.10	1894.00
579.45	1903.00
579.80	1910.00
580.15	1895.00
580.50	1878.00
580.84	1876.00
581.19	1862.00
581.54	1852.00
581.89	1850.00
582.24	1840.00
582.58	1847.00
582.93	1855.00
583.28	1830.00
583.63	1849.00
583.98	1817.00
584.32	1842.00
584.67	1795.00
585.02	1811.00
585.37	1803.00
585.71	1774.00
586.06	1772.00
586.41	1799.00
586.76	1745.00
587.10	1787.00
587.45	1772.00
587.80	1753.00
588.15	1769.00
588.49	1753.00
588.84	1758.00
589.19	1758.00
589.53	1723.00
589.88	1725.00
590.23	1719.00
590.58	1703.00
590.92	1702.00
591.27	1721.00
591.62	1729.00
591.96	1707.00
592.31	1702.00
592.66	1715.00
593.00	1695.00
593.35	1683.00
593.70	1698.00
594.04	1694.00
594.39	1669.00
594.74	1651.00
595.08	1654.00
595.43	1664.00
595.78	1647.00
596.12	1635.00
596.47	1614.00
596.82	1635.00
597.16	1621.00
597.51	1624.00
597.86	1607.00
598.20	1593.00
598.55	1613.00
598.90	1571.00
599.24	1587.00
599.59	1592.00
599.93	1546.00
600.28	1579.00
600.63	1565.00
600.97	1569.00
601.32	1548.00
601.66	1548.00
602.01	1543.00
602.36	1536.00
602.70	1520.00
603.05	1522.00
603.39	1511.00
603.74	1505.00
604.09	1488.00
604.43	1485.00
604.78	1486.00
605.12	1476.00
605.47	1481.00
605.81	1470.00
606.16	1450.00
606.50	1442.00
606.85	1443.00
607.20	1444.00
607.54	1435.00
607.89	1415.00
608.23	1425.00
608.58	1406.00
608.92	1394.00
609.27	1394.00
609.61	1397.00
609.96	1412.00
610.30	1385.00
610.65	1357.00
610.99	1358.00
611.34	1351.00
611.68	1322.00
612.03	1325.00
612.37	1319.00
612.72	1304.00
613.06	1295.00
613.41	1290.00
613.75	1280.00
614.10	1276.00
614.44	1267.00
614.79	1255.00
615.13	1261.00
615.48	1234.00
615.82	1251.00
616.16	1254.00
616.51	1210.00
616.85	1227.00
617.20	1200.00
617.54	1182.00
617.89	1196.00
618.23	1184.00
618.58	1186.00
618.92	1147.00
619.26	1179.00
619.61	1159.00
619.95	1135.00
620.30	1127.00
620.64	1124.00
620.99	1129.00
621.33	1122.00
621.67	1093.00
622.02	1129.00
622.36	1090.00
622.70	1082.00
623.05	1095.00
623.39	1066.00
623.74	1075.00
624.08	1068.00
624.42	1050.00
624.77	1042.00
625.11	1038.00
625.46	1037.00
625.80	1039.00
626.14	1017.00
626.49	1019.00
626.83	1006.00
627.17	1001.00
627.52	997.00
627.86	993.00
628.20	969.00
628.55	971.00
628.89	969.00
629.23	971.00
629.58	958.00
629.92	956.00
630.26	936.00
630.61	933.00
630.95	949.00
631.29	920.00
631.64	935.00
631.98	921.00
632.32	916.00
632.66	925.00
633.01	918.00
633.35	904.00
633.69	891.00
634.04	886.00
634.38	873.00
634.72	880.00
635.06	865.00
635.41	857.00
635.75	877.00
636.09	852.00
636.43	843.00
636.78	854.00
637.12	858.00
637.46	826.00
637.80	833.00
638.15	822.00
638.49	823.00
638.83	804.00
639.17	801.00
639.52	812.00
639.86	798.00
640.20	799.00
640.54	797.00
640.89	792.00
641.23	775.00
641.57	786.00
641.91	783.00
642.25	754.00
642.60	772.00
642.94	763.00
643.28	757.00
643.62	759.00
643.96	754.00
644.31	753.00
644.65	741.00
644.99	732.00
645.33	731.00
645.67	736.00
646.01	717.00
646.36	733.00
646.70	727.00
647.04	714.00
647.38	713.00
647.72	708.00
648.06	700.00
648.41	700.00
648.75	690.00
649.09	688.00
649.43	683.00
649.77	687.00
650.11	682.00
650.45	659.00
650.79	657.00
651.14	651.00
651.48	654.00
651.82	651.00
652.16	653.00
652.50	636.00
652.84	642.00
653.18	638.00
653.52	641.00
653.86	627.00
654.21	621.00
654.55	626.00
654.89	611.00
655.23	605.00
655.57	599.00
655.91	612.00
656.25	597.00
656.59	604.00
656.93	589.00
657.27	590.00
657.61	579.00
657.95	596.00
658.29	585.00
658.63	579.00
658.97	576.00
659.31	575.00
659.66	581.00
660.00	568.00
660.34	560.00
660.68	556.00
661.02	565.00
661.36	542.00
661.70	543.00
662.04	532.00
662.38	532.00
662.72	535.00
663.06	519.00
663.40	526.00
663.74	521.00
664.08	523.00
664.42	521.00
664.76	508.00
665.10	509.00
665.44	502.00
665.78	508.00
666.12	509.00
666.46	487.00
666.80	500.00
667.14	496.00
667.48	491.00
667.82	480.00
668.16	479.00
668.49	479.00
668.83	467.00
669.17	463.00
669.51	463.00
669.85	464.00
670.19	465.00
670.53	464.00
670.87	451.00
671.21	437.00
671.55	458.00
671.89	452.00
672.23	443.00
672.57	435.00
672.91	440.00
673.25	435.00
673.58	433.00
673.92	426.00
674.26	425.00
674.60	423.00
674.94	425.00
675.28	412.00
675.62	416.00
675.96	410.00
676.30	406.00
676.64	410.00
676.97	420.00
677.31	402.00
677.65	399.00
677.99	391.00
678.33	396.00
678.67	393.00
679.01	395.00
679.34	390.00
679.68	386.00
680.02	387.00
680.36	381.00
680.70	380.00
681.04	375.00
681.38	380.00
681.71	370.00
682.05	362.00
682.39	373.00
682.73	378.00
683.07	358.00
683.41	364.00
683.74	356.00
684.08	361.00
684.42	360.00
684.76	361.00
685.10	351.00
685.43	353.00
685.77	344.00
686.11	346.00
686.45	350.00
686.79	341.00
687.12	336.00
687.46	334.00
687.80	340.00
688.14	341.00
688.47	334.00
688.81	336.00
689.15	335.00
689.49	327.00
689.83	322.00
690.16	323.00
690.50	329.00
690.84	322.00
691.18	320.00
691.51	331.00
691.85	319.00
692.19	313.00
692.52	313.00
692.86	313.00
693.20	314.00
693.54	313.00
693.87	308.00
694.21	305.00
694.55	307.00
694.89	302.00
695.22	304.00
695.56	301.00
695.90	299.00
696.23	308.00
696.57	305.00
696.91	289.00
697.25	302.00
697.58	294.00
697.92	293.00
698.26	296.00
698.59	297.00
698.93	286.00
699.27	284.00
699.60	288.00
699.94	291.00
700.28	287.00
700.61	283.00
700.95	282.00
701.29	281.00
701.62	278.00
701.96	290.00
702.30	282.00
702.63	278.00
702.97	279.00
703.30	268.00
703.64	268.00
703.98	274.00
704.31	279.00
704.65	274.00
704.99	276.00
705.32	272.00
705.66	271.00
706.00	273.00
706.33	261.00
706.67	268.00
707.00	266.00
707.34	268.00
707.68	272.00
708.01	264.00
708.35	260.00
708.68	261.00
709.02	261.00
709.36	262.00
709.69	256.00
710.03	259.00
710.36	251.00
710.70	258.00
711.03	257.00
711.37	259.00
711.71	255.00
712.04	251.00
712.38	248.00
712.71	247.00
713.05	243.00
713.38	248.00
713.72	252.00
714.05	248.00
714.39	252.00
714.72	248.00
715.06	246.00
715.40	242.00
715.73	243.00
716.07	244.00
716.40	235.00
716.74	244.00
717.07	245.00
717.41	238.00
717.74	240.00
718.08	240.00
718.41	247.00
718.75	234.00
719.08	240.00
719.42	234.00
719.75	235.00
720.09	233.00
720.42	235.00
720.76	241.00
721.09	234.00
721.43	234.00
721.76	238.00
722.10	236.00
722.43	232.00
722.77	233.00
723.10	225.00
723.43	230.00
723.77	231.00
724.10	236.00
724.44	229.00
724.77	233.00
725.11	233.00
725.44	242.00
725.78	225.00
726.11	233.00
726.45	228.00
726.78	236.00
727.11	223.00
727.45	230.00
727.78	221.00
728.12	222.00
728.45	219.00
728.78	219.00
729.12	223.00
729.45	220.00
729.79	217.00
730.12	220.00
730.46	218.00
730.79	222.00
731.12	212.00
731.46	223.00
731.79	215.00
732.12	218.00
732.46	217.00
732.79	218.00
733.13	217.00
733.46	217.00
733.79	216.00
734.13	217.00
734.46	211.00
734.79	215.00
735.13	221.00
735.46	212.00
735.80	213.00
736.13	208.00
736.46	215.00
736.80	209.00
737.13	210.00
737.46	215.00
737.80	209.00
738.13	207.00
738.46	210.00
738.80	213.00
739.13	216.00
739.46	211.00
739.80	213.00
740.13	214.00
740.46	211.00
740.80	207.00
741.13	206.00
741.46	202.00
741.79	216.00
742.13	208.00
742.46	205.00
742.79	208.00
743.13	202.00
743.46	208.00
743.79	203.00
744.12	210.00
744.46	203.00
744.79	202.00
745.12	204.00
745.46	207.00
745.79	202.00
746.12	202.00
746.45	203.00
746.79	203.00
747.12	208.00
747.45	204.00
747.78	200.00
748.12	203.00
748.45	200.00
748.78	198.00
749.11	197.00
749.45	195.00
749.78	198.00
750.11	199.00
750.44	201.00
750.78	199.00
751.11	198.00
751.44	201.00
751.77	202.00
752.10	197.00
752.44	200.00
752.77	202.00
753.10	197.00
753.43	196.00
753.76	204.00
754.10	203.00
754.43	206.00
754.76	199.00
755.09	201.00
755.42	208.00
755.76	197.00
756.09	192.00
756.42	192.00
756.75	197.00
757.08	199.00
757.42	197.00
757.75	197.00
758.08	200.00
758.41	198.00
758.74	196.00
759.07	192.00
759.41	195.00
759.74	200.00
760.07	198.00
760.40	195.00
760.73	195.00
761.06	197.00
761.39	192.00
761.73	198.00
762.06	191.00
762.39	202.00
762.72	190.00
763.05	194.00
763.38	199.00
763.71	193.00
764.04	194.00
764.37	192.00
764.71	198.00
765.04	192.00
765.37	193.00
765.70	197.00
766.03	194.00
766.36	194.00
766.69	199.00
767.02	191.00
767.35	191.00
767.68	192.00
768.02	190.00
768.35	194.00
768.68	189.00
769.01	188.00
769.34	196.00
769.67	194.00
770.00	188.00
770.33	190.00
770.66	202.00
770.99	191.00
771.32	192.00
771.65	191.00
771.98	191.00
772.31	193.00
772.64	193.00
772.97	194.00
773.31	187.00
773.64	194.00
773.97	194.00
774.30	188.00
774.63	196.00
774.96	190.00
775.29	196.00
775.62	197.00
775.95	189.00
776.28	191.00
776.61	195.00
776.94	188.00
777.27	184.00
777.60	190.00
777.93	186.00
778.26	186.00
778.59	195.00
778.92	187.00
779.25	189.00
779.58	193.00
779.91	186.00
780.24	192.00
780.57	193.00
780.90	190.00
781.23	189.00
781.56	193.00
781.89	187.00
782.22	189.00
782.55	187.00
782.87	189.00
783.20	182.00
783.53	191.00
783.86	184.00
784.19	184.00
784.52	190.00
784.85	182.00
785.18	188.00
785.51	190.00
785.84	185.00
786.17	187.00
786.50	186.00
786.83	190.00
787.16	192.00
787.49	187.00
787.82	184.00
788.14	193.00
788.47	193.00
788.80	186.00
789.13	187.00
789.46	188.00
789.79	185.00
790.12	185.00
790.45	187.00
790.78	191.00
791.11	189.00
791.44	186.00
791.76	187.00
792.09	191.00
792.42	191.00
792.75	185.00
793.08	191.00
793.41	183.00
793.74	188.00
794.07	192.00
794.39	187.00
794.72	190.00
795.05	186.00
795.38	187.00
795.71	189.00
796.04	194.00
796.37	184.00
796.69	178.00
797.02	193.00
797.35	191.00
797.68	187.00
798.01	189.00
798.34	185.00
798.66	188.00
798.99	188.00
799.32	183.00
799.65	178.00
799.98	196.00
800.31	186.00
800.63	190.00
800.96	189.00
801.29	188.00
801.62	183.00
801.95	191.00
802.27	191.00
802.60	192.00
802.93	189.00
803.26	180.00
803.59	192.00
803.91	186.00
804.24	186.00
804.57	179.00
804.90	187.00
805.23	183.00
805.55	184.00
805.88	188.00
806.21	194.00
806.54	190.00
806.86	185.00
807.19	189.00
807.52	179.00
807.85	179.00
808.18	185.00
808.50	191.00
808.83	192.00
809.16	190.00
809.49	185.00
809.81	179.00
810.14	184.00
810.47	195.00
810.79	184.00
811.12	188.00
811.45	186.00
811.78	184.00
812.10	183.00
812.43	185.00
812.76	187.00
813.09	180.00
813.41	184.00
813.74	183.00
814.07	185.00
814.39	187.00
814.72	188.00
815.05	186.00
815.38	184.00
815.70	189.00
816.03	187.00
816.36	182.00
816.68	184.00
817.01	186.00
817.34	181.00
817.66	186.00
817.99	186.00
818.32	188.00
818.64	190.00
818.97	182.00
819.30	181.00
819.62	183.00
819.95	187.00
820.28	177.00
820.60	184.00
820.93	187.00
821.26	180.00
821.58	185.00
821.91	185.00
822.24	186.00
822.56	183.00
822.89	183.00
823.22	185.00
823.54	184.00
823.87	185.00
824.20	182.00
824.52	188.00
824.85	186.00
825.17	187.00
825.50	181.00
825.83	181.00
826.15	191.00
826.48	182.00
826.81	186.00
827.13	183.00
827.46	185.00
827.78	179.00
828.11	186.00
828.44	192.00
828.76	179.00
829.09	184.00
829.41	183.00
829.74	185.00
830.07	188.00
830.39	180.00
830.72	180.00
831.04	188.00
831.37	184.00
831.69	187.00
832.02	187.00
832.35	182.00
832.67	181.00
833.00	183.00
833.32	184.00
833.65	186.00
833.97	185.00
834.30	186.00
834.63	183.00
834.95	177.00
835.28	187.00
835.60	184.00
835.93	181.00
836.25	183.00
836.58	184.00
836.90	183.00
837.23	185.00
837.55	188.00
837.88	183.00
838.20	182.00
838.53	185.00
838.86	179.00
839.18	187.00
839.51	177.00
839.83	184.00
840.16	196.00
840.48	182.00
840.81	183.00
841.13	185.00
841.46	189.00
841.78	186.00
842.11	184.00
842.43	181.00
842.76	182.00
843.08	180.00
843.41	180.00
843.73	182.00
844.06	181.00
844.38	184.00
844.71	184.00
845.03	181.00
845.35	182.00
845.68	177.00
846.00	183.00
846.33	182.00
846.65	183.00
846.98	184.00
847.30	192.00
847.63	179.00
847.95	188.00
848.28	186.00
848.60	180.00
848.93	181.00
849.25	186.00
849.57	179.00
849.90	183.00
850.22	186.00
850.55	178.00
850.87	186.00
851.20	183.00
851.52	188.00
851.84	183.00
852.17	185.00
852.49	184.00
852.82	180.00
853.14	183.00
853.47	182.00
853.79	177.00
854.11	181.00
854.44	186.00
854.76	182.00
855.09	178.00
855.41	188.00
855.73	183.00
856.06	178.00
856.38	180.00
856.71	182.00
857.03	183.00
857.35	181.00
857.68	182.00
858.00	187.00
858.32	181.00
858.65	187.00
858.97	182.00
859.30	178.00
859.62	180.00
859.94	183.00
860.27	177.00
860.59	187.00
860.91	185.00
861.24	182.00
861.56	182.00
861.88	178.00
862.21	172.00
862.53	186.00
862.86	185.00
863.18	185.00
863.50	181.00
863.83	178.00
864.15	180.00
864.47	186.00
864.80	186.00
865.12	185.00
865.44	181.00
865.77	184.00
866.09	182.00
866.41	182.00
866.73	182.00
867.06	185.00
867.38	185.00
867.70	181.00
868.03	186.00
868.35	184.00
868.67	178.00
869.00	185.00
869.32	188.00
869.64	181.00
869.97	184.00
870.29	180.00
870.61	184.00
870.93	183.00
871.26	191.00
871.58	183.00
871.90	184.00
872.23	175.00
872.55	182.00
872.87	187.00
873.19	184.00
873.52	179.00
873.84	179.00
874.16	185.00
874.48	182.00
874.81	179.00
875.13	188.00
875.45	180.00
875.77	187.00
876.10	177.00
876.42	180.00
876.74	179.00
877.06	185.00
877.39	178.00
877.71	181.00
878.03	182.00
878.35	185.00
878.68	181.00
879.00	188.00
879.32	179.00
879.64	174.00
879.97	187.00
880.29	180.00
880.61	180.00
880.93	185.00
881.25	184.00
881.58	186.00
881.90	188.00
882.22	183.00
882.54	186.00
882.86	189.00
883.19	184.00
883.51	181.00
883.83	182.00
884.15	184.00
884.47	182.00
884.80	192.00
885.12	181.00
885.44	178.00
885.76	182.00
886.08	180.00
886.41	185.00
886.73	188.00
887.05	181.00
887.37	184.00
887.69	181.00
888.01	187.00
888.34	185.00
888.66	186.00
888.98	185.00
889.30	185.00
889.62	185.00
889.94	180.00
890.26	183.00
890.59	184.00
890.91	181.00
891.23	183.00
891.55	182.00
891.87	178.00
892.19	183.00
892.51	185.00
892.84	185.00
893.16	185.00
893.48	185.00
893.80	183.00
894.12	185.00
894.44	188.00
894.76	178.00
895.08	184.00
895.41	188.00
895.73	181.00
896.05	180.00
896.37	185.00
896.69	181.00
897.01	181.00
897.33	180.00
897.65	184.00
897.97	182.00
898.30	185.00
898.62	181.00
898.94	186.00
899.26	185.00
899.58	179.00
899.90	184.00
900.22	185.00
900.54	190.00
900.86	182.00
901.18	184.00
901.50	177.00
901.82	186.00
902.15	183.00
902.47	182.00
902.79	184.00
903.11	190.00
903.43	195.00
903.75	184.00
904.07	186.00
904.39	185.00
904.71	182.00
905.03	185.00
905.35	183.00
905.67	180.00
905.99	178.00
906.31	180.00
906.63	187.00
906.95	182.00
907.27	183.00
907.59	181.00
907.91	180.00
908.23	182.00
908.55	185.00
908.88	188.00
909.20	178.00
909.52	180.00
909.84	185.00
910.16	185.00
910.48	188.00
910.80	176.00
911.12	182.00
911.44	184.00
911.76	186.00
912.08	185.00
912.40	187.00
912.72	183.00
913.04	183.00
913.36	189.00
913.68	183.00
914.00	180.00
914.32	183.00
914.64	181.00
914.96	184.00
915.28	182.00
915.60	183.00
915.92	187.00
916.23	180.00
916.55	180.00
916.87	180.00
917.19	187.00
917.51	190.00
917.83	175.00
918.15	183.00
918.47	185.00
918.79	185.00
919.11	181.00
919.43	184.00
919.75	185.00
920.07	187.00
920.39	181.00
920.71	182.00
921.03	184.00
921.35	183.00
921.67	184.00
921.99	183.00
922.31	184.00
922.63	194.00
922.94	187.00
923.26	179.00
923.58	181.00
923.90	184.00
924.22	179.00
924.54	186.00
924.86	182.00
925.18	183.00
925.50	182.00
925.82	184.00
926.14	181.00
926.46	184.00
926.78	185.00
927.09	180.00
927.41	183.00
927.73	182.00
928.05	183.00
928.37	181.00
928.69	187.00
929.01	183.00
929.33	182.00
929.65	180.00
929.96	186.00
930.28	177.00
930.60	182.00
930.92	185.00
931.24	180.00
931.56	181.00
931.88	179.00
932.20	180.00
932.51	183.00
932.83	176.00
933.15	177.00
933.47	188.00
933.79	184.00
934.11	183.00
934.43	184.00
934.75	185.00
935.06	189.00
935.38	184.00
935.70	182.00
936.02	182.00
936.34	185.00
936.66	186.00
936.97	180.00
937.29	183.00
937.61	180.00
937.93	190.00
938.25	181.00
938.57	184.00
938.88	180.00
939.20	183.00
939.52	185.00
939.84	180.00
940.16	184.00
940.48	190.00
940.79	179.00
941.11	180.00
941.43	185.00
941.75	181.00
942.07	187.00
942.38	185.00
942.70	177.00
943.02	180.00
943.34	180.00
943.66	182.00
943.97	177.00
944.29	184.00
944.61	176.00
944.93	181.00
945.25	184.00
945.56	188.00
945.88	185.00
946.20	188.00
946.52	183.00
946.84	183.00
947.15	180.00
947.47	186.00
947.79	177.00
948.11	183.00
948.42	187.00
948.74	181.00
949.06	179.00
949.38	180.00
949.69	179.00
950.01	192.00
950.33	183.00
950.65	183.00
950.96	185.00
951.28	187.00
951.60	183.00
951.92	179.00
952.23	183.00
952.55	182.00
952.87	180.00
953.19	185.00
953.50	184.00
953.82	179.00
954.14	189.00
954.46	178.00
954.77	184.00
955.09	180.00
955.41	180.00
955.73	184.00
956.04	186.00
956.36	180.00
956.68	178.00
956.99	183.00
957.31	179.00
957.63	180.00
957.95	176.00
958.26	182.00
958.58	182.00
958.90	187.00
959.21	187.00
959.53	186.00
959.85	184.00
960.16	182.00
960.48	182.00
960.80	185.00
961.12	179.00
961.43	184.00
961.75	180.00
962.07	176.00
962.38	188.00
962.70	180.00
963.02	185.00
963.33	181.00
963.65	188.00
963.97	183.00
964.28	181.00
964.60	184.00
964.92	175.00
965.23	179.00
965.55	184.00
965.87	185.00
966.18	181.00
966.50	184.00
966.82	182.00
967.13	185.00
967.45	177.00
967.77	179.00
968.08	184.00
968.40	176.00
968.72	196.00
969.03	180.00
969.35	177.00
969.67	184.00
969.98	178.00
970.30	187.00
970.61	178.00
970.93	183.00
971.25	176.00
971.56	185.00
971.88	180.00
972.20	182.00
972.51	185.00
972.83	184.00
973.14	182.00
973.46	183.00
973.78	181.00
974.09	184.00
974.41	183.00
974.72	182.00
975.04	185.00
975.36	180.00
975.67	186.00
975.99	178.00
976.31	183.00
976.62	182.00
976.94	186.00
977.25	181.00
977.57	181.00
977.88	185.00
978.20	186.00
978.52	185.00
978.83	183.00
979.15	184.00
979.46	187.00
979.78	184.00
980.10	179.00
980.41	184.00
980.73	179.00
981.04	182.00
981.36	182.00
981.67	182.00
981.99	178.00
982.31	183.00
982.62	184.00
982.94	180.00
983.25	179.00
983.57	182.00
983.88	181.00
984.20	183.00
984.51	185.00
984.83	183.00
985.15	180.00
985.46	185.00
985.78	181.00
986.09	180.00
986.41	175.00
986.72	182.00
987.04	182.00
987.35	177.00
987.67	183.00
987.98	181.00
988.30	180.00
988.62	185.00
988.93	183.00
989.25	185.00
989.56	181.00
989.88	185.00
990.19	179.00
990.51	184.00
990.82	182.00
991.14	179.00
991.45	186.00
991.77	190.00
992.08	183.00
992.40	183.00
992.71	184.00
993.03	182.00
993.34	184.00
993.66	180.00
993.97	189.00
994.29	184.00
994.60	177.00
994.92	186.00
995.23	182.00
995.55	186.00
995.86	183.00
996.18	181.00
996.49	182.00
996.81	181.00
997.12	176.00
997.44	180.00
997.75	186.00
998.07	179.00
998.38	185.00
998.70	178.00
999.01	182.00
999.32	176.00
999.64	182.00
999.95	180.00
1000.27	180.00
1000.58	184.00
1000.90	180.00
1001.21	178.00
1001.53	181.00
1001.84	185.00
1002.16	177.00
1002.47	182.00
1002.78	180.00
1003.10	181.00
1003.41	179.00
1003.73	179.00
1004.04	185.00
1004.36	184.00
1004.67	180.00
1004.99	183.00
1005.30	185.00
1005.61	184.00
1005.93	182.00
1006.24	183.00
1006.56	178.00
1006.87	183.00
1007.19	182.00
1007.50	185.00
1007.81	179.00
1008.13	181.00
1008.44	185.00
1008.76	184.00
1009.07	184.00
1009.39	185.00
1009.70	188.00
1010.01	183.00
1010.33	183.00
1010.64	181.00
1010.96	180.00
1011.27	188.00
1011.58	187.00
1011.90	185.00
1012.21	181.00
1012.53	184.00
1012.84	183.00
1013.15	189.00
1013.47	185.00
1013.78	183.00
1014.10	181.00
1014.41	178.00
1014.72	174.00
1015.04	178.00
1015.35	181.00
1015.66	187.00
1015.98	192.00
1016.29	179.00
1016.61	183.00
1016.92	181.00
1017.23	183.00
1017.55	178.00
1017.86	183.00
1018.17	184.00
1018.49	187.00
1018.80	180.00
1019.12	184.00
1019.43	179.00
1019.74	183.00
1020.06	177.00
1020.37	196.00
1020.68	177.00
1021.00	185.00
1021.31	180.00
1021.62	178.00
1021.94	183.00
1022.25	179.00
1022.56	186.00
1022.88	182.00
1023.19	189.00
1023.50	183.00
1023.82	182.00
1024.13	184.00
1024.44	193.00
1024.76	189.00
1025.07	184.00
1025.38	185.00
1025.70	188.00
1026.01	189.00
1026.32	177.00
1026.64	180.00
1026.95	184.00
1027.26	182.00
1027.58	183.00
1027.89	179.00
1028.20	180.00
1028.52	185.00
1028.83	179.00
1029.14	186.00
1029.46	183.00
1029.77	182.00
1030.08	178.00
1030.39	182.00
1030.71	184.00
1031.02	179.00
1031.33	181.00
1031.65	183.00
1031.96	183.00
1032.27	184.00
1032.59	183.00
1032.90	187.00
1033.21	183.00
1033.52	182.00
1033.84	185.00
>>>>>End Processed Spectral Data<<<<<
